Temperature (C) Pressure (bar) Density (l, mol/l) Volume (l, l/mol) Internal Energy (l, kJ/mol) Enthalpy (l, kJ/mol) Entropy (l, J/mol*K) Cv (l, J/mol*K) Cp (l, J/mol*K) Sound Spd. (l, m/s) Joule-Thomson (l, K/bar) Viscosity (l, uPa*s) Therm. Cond. (l, W/m*K) Surf. Tension (l, N/m) Density (v, mol/l) Volume (v, l/mol) Internal Energy (v, kJ/mol) Enthalpy (v, kJ/mol) Entropy (v, J/mol*K) Cv (v, J/mol*K) Cp (v, J/mol*K) Sound Spd. (v, m/s) Joule-Thomson (v, K/bar) Viscosity (v, uPa*s) Therm. Cond. (v, W/m*K)
130.00 2.7028 51.891 0.019271 9.8380 9.8432 29.449 65.162 76.772 1504.3 -0.015869 212.90 0.68370 0.052932 0.083096 12.034 45.750 49.003 126.58 29.837 40.334 485.97 4.7601 13.301 0.028765 130.50 2.7435 51.868 0.019280 9.8764 9.8817 29.544 65.118 76.790 1503.4 -0.015834 212.02 0.68370 0.052829 0.084267 11.867 45.760 49.015 126.49 29.874 40.394 486.17 4.7357 13.319 0.028832 131.00 2.7846 51.844 0.019289 9.9148 9.9201 29.639 65.075 76.807 1502.6 -0.015798 211.14 0.68370 0.052726 0.085452 11.702 45.769 49.028 126.40 29.912 40.455 486.37 4.7115 13.336 0.028899 131.50 2.8263 51.820 0.019297 9.9531 9.9586 29.734 65.031 76.825 1501.7 -0.015761 210.28 0.68370 0.052623 0.086650 11.541 45.778 49.040 126.31 29.950 40.516 486.57 4.6874 13.353 0.028966 132.00 2.8685 51.797 0.019306 9.9915 9.9971 29.828 64.988 76.843 1500.9 -0.015725 209.42 0.68369 0.052520 0.087862 11.382 45.788 49.052 126.23 29.988 40.578 486.77 4.6636 13.370 0.029034 132.50 2.9111 51.773 0.019315 10.030 10.036 29.923 64.945 76.862 1500.0 -0.015689 208.57 0.68368 0.052417 0.089087 11.225 45.797 49.065 126.14 30.026 40.641 486.97 4.6399 13.388 0.029101 133.00 2.9543 51.749 0.019324 10.068 10.074 30.018 64.901 76.880 1499.1 -0.015652 207.72 0.68367 0.052313 0.090325 11.071 45.806 49.077 126.05 30.065 40.703 487.16 4.6163 13.405 0.029169 133.50 2.9980 51.725 0.019333 10.107 10.113 30.112 64.858 76.898 1498.2 -0.015616 206.88 0.68366 0.052210 0.091578 10.920 45.815 49.089 125.96 30.103 40.767 487.36 4.5930 13.422 0.029237 134.00 3.0423 51.701 0.019342 10.145 10.151 30.207 64.815 76.917 1497.3 -0.015579 206.05 0.68364 0.052106 0.092845 10.771 45.824 49.101 125.87 30.142 40.830 487.55 4.5698 13.439 0.029306 134.50 3.0870 51.677 0.019351 10.184 10.190 30.301 64.772 76.936 1496.4 -0.015542 205.22 0.68363 0.052003 0.094125 10.624 45.833 49.113 125.78 30.182 40.894 487.75 4.5467 13.457 0.029374 135.00 3.1323 51.653 0.019360 10.222 10.228 30.395 64.729 76.955 1495.5 -0.015505 204.40 0.68361 0.051899 0.095420 10.480 45.843 49.125 125.70 30.221 40.959 487.94 4.5238 13.474 0.029443 135.50 3.1781 51.629 0.019369 10.260 10.267 30.489 64.686 76.974 1494.6 -0.015467 203.59 0.68359 0.051795 0.096729 10.338 45.852 49.137 125.61 30.261 41.024 488.13 4.5011 13.491 0.029512 136.00 3.2245 51.604 0.019378 10.299 10.305 30.583 64.643 76.993 1493.7 -0.015430 202.78 0.68356 0.051691 0.098052 10.199 45.861 49.149 125.52 30.301 41.090 488.32 4.4785 13.508 0.029581 136.50 3.2714 51.580 0.019387 10.337 10.344 30.677 64.600 77.012 1492.8 -0.015393 201.98 0.68354 0.051587 0.099390 10.061 45.870 49.161 125.43 30.341 41.156 488.51 4.4561 13.526 0.029650 137.00 3.3188 51.556 0.019397 10.376 10.382 30.771 64.558 77.032 1491.9 -0.015355 201.19 0.68351 0.051483 0.10074 9.9263 45.879 49.173 125.35 30.382 41.223 488.70 4.4338 13.543 0.029719 137.50 3.3669 51.531 0.019406 10.414 10.421 30.865 64.515 77.051 1491.0 -0.015317 200.40 0.68348 0.051379 0.10211 9.7934 45.888 49.185 125.26 30.422 41.290 488.89 4.4117 13.560 0.029789 138.00 3.4154 51.507 0.019415 10.453 10.459 30.959 64.472 77.071 1490.0 -0.015279 199.62 0.68345 0.051274 0.10349 9.6626 45.897 49.197 125.18 30.463 41.357 489.08 4.3898 13.578 0.029859 138.50 3.4646 51.482 0.019424 10.491 10.498 31.052 64.430 77.091 1489.1 -0.015241 198.84 0.68342 0.051170 0.10489 9.5339 45.905 49.209 125.09 30.505 41.425 489.26 4.3679 13.595 0.029929 139.00 3.5143 51.458 0.019433 10.530 10.537 31.146 64.387 77.111 1488.1 -0.015203 198.07 0.68338 0.051065 0.10630 9.4073 45.914 49.220 125.00 30.546 41.494 489.45 4.3463 13.612 0.029999 139.50 3.5645 51.433 0.019443 10.568 10.575 31.239 64.345 77.131 1487.2 -0.015164 197.30 0.68334 0.050961 0.10773 9.2826 45.923 49.232 124.92 30.588 41.563 489.63 4.3247 13.629 0.030070 140.00 3.6154 51.408 0.019452 10.607 10.614 31.333 64.303 77.152 1486.2 -0.015126 196.54 0.68330 0.050856 0.10917 9.1599 45.932 49.244 124.83 30.630 41.632 489.82 4.3033 13.647 0.030140 140.50 3.6668 51.384 0.019461 10.645 10.653 31.426 64.261 77.172 1485.3 -0.015087 195.79 0.68326 0.050751 0.11063 9.0392 45.941 49.255 124.75 30.672 41.702 490.00 4.2821 13.664 0.030211 141.00 3.7189 51.359 0.019471 10.684 10.691 31.519 64.218 77.193 1484.3 -0.015048 195.04 0.68321 0.050646 0.11210 8.9204 45.950 49.267 124.66 30.715 41.773 490.18 4.2610 13.681 0.030282 141.50 3.7715 51.334 0.019480 10.723 10.730 31.612 64.176 77.214 1483.3 -0.015009 194.30 0.68317 0.050541 0.11359 8.8034 45.958 49.278 124.58 30.757 41.844 490.36 4.2400 13.698 0.030354 142.00 3.8247 51.309 0.019490 10.761 10.769 31.705 64.134 77.235 1482.3 -0.014970 193.56 0.68312 0.050436 0.11510 8.6883 45.967 49.290 124.49 30.800 41.915 490.54 4.2192 13.716 0.030425 142.50 3.8785 51.284 0.019499 10.800 10.807 31.798 64.092 77.256 1481.3 -0.014931 192.83 0.68306 0.050331 0.11662 8.5749 45.976 49.301 124.41 30.844 41.987 490.72 4.1985 13.733 0.030497 143.00 3.9329 51.259 0.019509 10.838 10.846 31.891 64.051 77.278 1480.3 -0.014891 192.10 0.68301 0.050225 0.11816 8.4634 45.984 49.313 124.33 30.887 42.059 490.89 4.1779 13.750 0.030569 143.50 3.9880 51.234 0.019518 10.877 10.885 31.983 64.009 77.299 1479.3 -0.014851 191.38 0.68296 0.050120 0.11971 8.3535 45.993 49.324 124.24 30.931 42.132 491.07 4.1574 13.768 0.030641 144.00 4.0437 51.209 0.019528 10.915 10.923 32.076 63.967 77.321 1478.3 -0.014811 190.66 0.68290 0.050015 0.12128 8.2454 46.001 49.336 124.16 30.975 42.206 491.25 4.1371 13.785 0.030713 144.50 4.0999 51.183 0.019538 10.954 10.962 32.168 63.925 77.342 1477.3 -0.014771 189.95 0.68284 0.049909 0.12287 8.1389 46.010 49.347 124.08 31.019 42.280 491.42 4.1169 13.802 0.030785 145.00 4.1568 51.158 0.019547 10.993 11.001 32.261 63.884 77.364 1476.3 -0.014731 189.25 0.68278 0.049803 0.12447 8.0341 46.019 49.358 123.99 31.064 42.354 491.59 4.0969 13.819 0.030858 145.50 4.2144 51.133 0.019557 11.031 11.040 32.353 63.842 77.387 1475.3 -0.014691 188.54 0.68271 0.049697 0.12609 7.9309 46.027 49.369 123.91 31.108 42.429 491.76 4.0769 13.837 0.030931 146.00 4.2726 51.107 0.019567 11.070 11.078 32.445 63.801 77.409 1474.3 -0.014650 187.85 0.68265 0.049592 0.12773 7.8293 46.036 49.381 123.83 31.153 42.505 491.93 4.0571 13.854 0.031004 146.50 4.3314 51.082 0.019576 11.109 11.117 32.538 63.760 77.431 1473.2 -0.014610 187.16 0.68258 0.049486 0.12938 7.7292 46.044 49.392 123.74 31.198 42.581 492.10 4.0374 13.871 0.031077 147.00 4.3909 51.056 0.019586 11.147 11.156 32.630 63.718 77.454 1472.2 -0.014569 186.47 0.68251 0.049380 0.13105 7.6307 46.052 49.403 123.66 31.244 42.657 492.27 4.0178 13.888 0.031151 147.50 4.4510 51.031 0.019596 11.186 11.195 32.722 63.677 77.477 1471.1 -0.014528 185.79 0.68244 0.049273 0.13274 7.5337 46.061 49.414 123.58 31.289 42.734 492.44 3.9984 13.906 0.031224 148.00 4.5118 51.005 0.019606 11.225 11.234 32.814 63.636 77.500 1470.1 -0.014487 185.12 0.68236 0.049167 0.13444 7.4381 46.069 49.425 123.50 31.335 42.812 492.61 3.9790 13.923 0.031298 148.50 4.5732 50.979 0.019616 11.263 11.272 32.906 63.595 77.523 1469.0 -0.014445 184.45 0.68228 0.049061 0.13617 7.3440 46.077 49.436 123.42 31.382 42.890 492.77 3.9598 13.940 0.031372 149.00 4.6354 50.953 0.019626 11.302 11.311 32.997 63.554 77.546 1468.0 -0.014404 183.78 0.68221 0.048954 0.13791 7.2513 46.086 49.447 123.33 31.428 42.968 492.94 3.9407 13.957 0.031446 149.50 4.6982 50.928 0.019636 11.341 11.350 33.089 63.513 77.570 1466.9 -0.014362 183.12 0.68213 0.048848 0.13966 7.1601 46.094 49.458 123.25 31.475 43.047 493.10 3.9217 13.975 0.031521 150.00 4.7616 50.902 0.019646 11.380 11.389 33.181 63.472 77.593 1465.8 -0.014320 182.46 0.68204 0.048741 0.14144 7.0701 46.102 49.469 123.17 31.521 43.127 493.26 3.9028 13.992 0.031595 150.50 4.8258 50.876 0.019656 11.418 11.428 33.272 63.431 77.617 1464.8 -0.014278 181.81 0.68196 0.048635 0.14323 6.9816 46.110 49.479 123.09 31.569 43.207 493.43 3.8841 14.009 0.031670 151.00 4.8907 50.850 0.019666 11.457 11.467 33.364 63.391 77.641 1463.7 -0.014236 181.16 0.68187 0.048528 0.14505 6.8943 46.118 49.490 123.01 31.616 43.287 493.59 3.8654 14.026 0.031745 151.50 4.9562 50.824 0.019676 11.496 11.506 33.455 63.350 77.665 1462.6 -0.014193 180.52 0.68178 0.048421 0.14688 6.8084 46.126 49.501 122.93 31.664 43.368 493.75 3.8468 14.044 0.031821 152.00 5.0225 50.798 0.019686 11.535 11.544 33.546 63.309 77.689 1461.5 -0.014151 179.88 0.68169 0.048314 0.14873 6.7238 46.135 49.512 122.85 31.711 43.450 493.90 3.8284 14.061 0.031896 152.50 5.0894 50.771 0.019696 11.573 11.583 33.637 63.269 77.714 1460.4 -0.014108 179.25 0.68160 0.048207 0.15059 6.6404 46.143 49.522 122.77 31.759 43.532 494.06 3.8101 14.078 0.031972 153.00 5.1571 50.745 0.019706 11.612 11.622 33.728 63.229 77.739 1459.3 -0.014065 178.62 0.68150 0.048100 0.15248 6.5582 46.151 49.533 122.69 31.808 43.615 494.22 3.7919 14.095 0.032048 153.50 5.2255 50.719 0.019717 11.651 11.661 33.819 63.188 77.763 1458.2 -0.014022 177.99 0.68141 0.047993 0.15439 6.4773 46.159 49.543 122.61 31.856 43.698 494.37 3.7737 14.113 0.032124 154.00 5.2946 50.692 0.019727 11.690 11.700 33.910 63.148 77.788 1457.1 -0.013978 177.37 0.68131 0.047885 0.15631 6.3976 46.167 49.554 122.53 31.905 43.782 494.53 3.7557 14.130 0.032200 154.50 5.3644 50.666 0.019737 11.729 11.739 34.001 63.108 77.814 1455.9 -0.013935 176.75 0.68120 0.047778 0.15825 6.3190 46.174 49.564 122.45 31.954 43.866 494.68 3.7378 14.147 0.032276 155.00 5.4350 50.639 0.019747 11.767 11.778 34.092 63.068 77.839 1454.8 -0.013891 176.14 0.68110 0.047670 0.16022 6.2416 46.182 49.575 122.37 32.003 43.950 494.83 3.7200 14.164 0.032353 155.50 5.5063 50.613 0.019758 11.806 11.817 34.183 63.028 77.864 1453.7 -0.013847 175.53 0.68100 0.047563 0.16220 6.1653 46.190 49.585 122.29 32.053 44.036 494.98 3.7023 14.182 0.032430 156.00 5.5784 50.586 0.019768 11.845 11.856 34.273 62.988 77.890 1452.5 -0.013803 174.93 0.68089 0.047455 0.16420 6.0901 46.198 49.595 122.21 32.102 44.122 495.13 3.6847 14.199 0.032507 156.50 5.6512 50.560 0.019779 11.884 11.895 34.364 62.948 77.916 1451.4 -0.013759 174.33 0.68078 0.047347 0.16622 6.0161 46.206 49.606 122.13 32.152 44.208 495.28 3.6672 14.216 0.032584 157.00 5.7247 50.533 0.019789 11.923 11.934 34.454 62.908 77.942 1450.3 -0.013714 173.73 0.68067 0.047240 0.16826 5.9431 46.213 49.616 122.06 32.202 44.295 495.43 3.6498 14.233 0.032662 157.50 5.7991 50.506 0.019800 11.962 11.973 34.545 62.868 77.968 1449.1 -0.013669 173.14 0.68055 0.047132 0.17032 5.8711 46.221 49.626 121.98 32.253 44.382 495.58 3.6325 14.251 0.032739 158.00 5.8742 50.479 0.019810 12.001 12.012 34.635 62.829 77.995 1447.9 -0.013624 172.55 0.68044 0.047024 0.17241 5.8002 46.229 49.636 121.90 32.303 44.470 495.72 3.6153 14.268 0.032817 158.50 5.9500 50.452 0.019821 12.040 12.051 34.725 62.789 78.022 1446.8 -0.013579 171.97 0.68032 0.046916 0.17451 5.7304 46.236 49.646 121.82 32.354 44.558 495.87 3.5981 14.285 0.032895 159.00 6.0267 50.425 0.019831 12.079 12.091 34.816 62.750 78.048 1445.6 -0.013534 171.39 0.68020 0.046807 0.17663 5.6615 46.244 49.656 121.74 32.405 44.647 496.01 3.5811 14.302 0.032974 159.50 6.1041 50.398 0.019842 12.118 12.130 34.906 62.710 78.075 1444.4 -0.013488 170.81 0.68008 0.046699 0.17877 5.5937 46.252 49.666 121.66 32.456 44.737 496.15 3.5642 14.320 0.033052 160.00 6.1823 50.371 0.019853 12.157 12.169 34.996 62.671 78.103 1443.2 -0.013443 170.24 0.67996 0.046591 0.18094 5.5268 46.259 49.676 121.59 32.508 44.827 496.29 3.5474 14.337 0.033131 160.50 6.2614 50.344 0.019863 12.196 12.208 35.086 62.632 78.130 1442.1 -0.013397 169.67 0.67983 0.046482 0.18312 5.4608 46.267 49.686 121.51 32.559 44.917 496.43 3.5306 14.354 0.033210 161.00 6.3412 50.317 0.019874 12.235 12.247 35.176 62.593 78.158 1440.9 -0.013350 169.11 0.67970 0.046374 0.18533 5.3958 46.274 49.696 121.43 32.611 45.008 496.57 3.5140 14.371 0.033289 161.50 6.4218 50.289 0.019885 12.274 12.286 35.265 62.553 78.185 1439.7 -0.013304 168.55 0.67957 0.046265 0.18756 5.3318 46.282 49.706 121.36 32.663 45.100 496.71 3.4974 14.389 0.033368 162.00 6.5033 50.262 0.019896 12.313 12.325 35.355 62.514 78.213 1438.5 -0.013257 167.99 0.67944 0.046156 0.18980 5.2686 46.289 49.715 121.28 32.716 45.192 496.85 3.4810 14.406 0.033448 162.50 6.5855 50.235 0.019907 12.352 12.365 35.445 62.476 78.241 1437.3 -0.013211 167.43 0.67931 0.046048 0.19207 5.2063 46.296 49.725 121.20 32.768 45.285 496.98 3.4646 14.423 0.033527 163.00 6.6686 50.207 0.019917 12.391 12.404 35.534 62.437 78.270 1436.0 -0.013164 166.88 0.67917 0.045939 0.19437 5.1449 46.304 49.735 121.13 32.821 45.378 497.12 3.4483 14.440 0.033607 163.50 6.7525 50.180 0.019928 12.430 12.443 35.624 62.398 78.298 1434.8 -0.013116 166.34 0.67903 0.045830 0.19668 5.0844 46.311 49.744 121.05 32.874 45.472 497.25 3.4321 14.457 0.033687 164.00 6.8373 50.152 0.019939 12.469 12.482 35.713 62.359 78.327 1433.6 -0.013069 165.80 0.67889 0.045721 0.19901 5.0247 46.318 49.754 120.97 32.927 45.566 497.39 3.4160 14.475 0.033768 164.50 6.9229 50.124 0.019950 12.508 12.522 35.803 62.320 78.356 1432.4 -0.013021 165.26 0.67875 0.045612 0.20137 4.9659 46.325 49.763 120.90 32.980 45.661 497.52 3.4000 14.492 0.033848 165.00 7.0093 50.097 0.019961 12.547 12.561 35.892 62.282 78.385 1431.1 -0.012973 164.72 0.67861 0.045503 0.20375 4.9079 46.333 49.773 120.82 33.034 45.756 497.65 3.3841 14.509 0.033929 165.50 7.0966 50.069 0.019972 12.586 12.600 35.981 62.243 78.414 1429.9 -0.012925 164.19 0.67846 0.045393 0.20616 4.8507 46.340 49.782 120.75 33.088 45.852 497.78 3.3683 14.526 0.034010 166.00 7.1848 50.041 0.019984 12.625 12.639 36.070 62.205 78.444 1428.7 -0.012877 163.66 0.67831 0.045284 0.20858 4.7943 46.347 49.791 120.67 33.142 45.948 497.91 3.3525 14.544 0.034091 166.50 7.2738 50.013 0.019995 12.664 12.679 36.159 62.167 78.474 1427.4 -0.012828 163.14 0.67816 0.045174 0.21103 4.7387 46.354 49.801 120.59 33.196 46.045 498.03 3.3368 14.561 0.034173 167.00 7.3638 49.985 0.020006 12.703 12.718 36.248 62.128 78.504 1426.2 -0.012779 162.61 0.67801 0.045065 0.21350 4.6839 46.361 49.810 120.52 33.250 46.143 498.16 3.3213 14.578 0.034254 167.50 7.4545 49.957 0.020017 12.743 12.757 36.337 62.090 78.534 1424.9 -0.012730 162.09 0.67785 0.044955 0.21599 4.6298 46.368 49.819 120.44 33.305 46.241 498.28 3.3058 14.595 0.034336 168.00 7.5462 49.929 0.020028 12.782 12.797 36.426 62.052 78.564 1423.6 -0.012681 161.58 0.67770 0.044846 0.21851 4.5764 46.375 49.828 120.37 33.360 46.340 498.41 3.2903 14.612 0.034418 168.50 7.6388 49.901 0.020040 12.821 12.836 36.515 62.014 78.595 1422.4 -0.012631 161.07 0.67754 0.044736 0.22105 4.5238 46.382 49.838 120.29 33.415 46.439 498.53 3.2750 14.630 0.034500 169.00 7.7322 49.873 0.020051 12.860 12.876 36.604 61.976 78.625 1421.1 -0.012581 160.56 0.67738 0.044626 0.22362 4.4719 46.389 49.847 120.22 33.470 46.538 498.65 3.2598 14.647 0.034583 169.50 7.8266 49.844 0.020062 12.899 12.915 36.692 61.938 78.656 1419.8 -0.012531 160.05 0.67721 0.044516 0.22620 4.4208 46.396 49.856 120.15 33.525 46.639 498.77 3.2446 14.664 0.034665 170.00 7.9219 49.816 0.020074 12.939 12.954 36.781 61.900 78.687 1418.5 -0.012481 159.55 0.67705 0.044406 0.22882 4.3703 46.402 49.864 120.07 33.581 46.740 498.89 3.2295 14.681 0.034748 170.50 8.0181 49.788 0.020085 12.978 12.994 36.870 61.863 78.719 1417.2 -0.012430 159.05 0.67688 0.044296 0.23145 4.3205 46.409 49.873 120.00 33.637 46.841 499.01 3.2145 14.699 0.034831 171.00 8.1152 49.759 0.020097 13.017 13.033 36.958 61.825 78.750 1415.9 -0.012380 158.56 0.67671 0.044186 0.23411 4.2714 46.416 49.882 119.92 33.693 46.943 499.13 3.1996 14.716 0.034914 171.50 8.2132 49.731 0.020108 13.056 13.073 37.046 61.787 78.782 1414.6 -0.012329 158.06 0.67654 0.044076 0.23680 4.2230 46.423 49.891 119.85 33.749 47.045 499.24 3.1847 14.733 0.034998 172.00 8.3122 49.702 0.020120 13.096 13.112 37.135 61.750 78.814 1413.3 -0.012277 157.57 0.67637 0.043965 0.23951 4.1752 46.429 49.900 119.78 33.805 47.148 499.36 3.1699 14.750 0.035081 172.50 8.4121 49.673 0.020131 13.135 13.152 37.223 61.713 78.846 1412.0 -0.012226 157.09 0.67620 0.043855 0.24224 4.1281 46.436 49.908 119.70 33.862 47.252 499.47 3.1553 14.767 0.035165 173.00 8.5130 49.645 0.020143 13.174 13.191 37.311 61.675 78.879 1410.7 -0.012174 156.60 0.67602 0.043745 0.24500 4.0816 46.442 49.917 119.63 33.919 47.356 499.58 3.1406 14.785 0.035249 173.50 8.6148 49.616 0.020155 13.214 13.231 37.399 61.638 78.912 1409.4 -0.012122 156.12 0.67584 0.043634 0.24779 4.0357 46.449 49.926 119.55 33.976 47.461 499.69 3.1261 14.802 0.035334 174.00 8.7176 49.587 0.020167 13.253 13.271 37.487 61.601 78.944 1408.0 -0.012070 155.65 0.67566 0.043523 0.25060 3.9905 46.455 49.934 119.48 34.033 47.566 499.81 3.1117 14.819 0.035418 174.50 8.8213 49.558 0.020178 13.292 13.310 37.575 61.564 78.978 1406.7 -0.012017 155.17 0.67547 0.043413 0.25343 3.9458 46.462 49.943 119.41 34.090 47.672 499.91 3.0973 14.836 0.035503 175.00 8.9260 49.529 0.020190 13.332 13.350 37.663 61.527 79.011 1405.4 -0.011965 154.70 0.67529 0.043302 0.25629 3.9018 46.468 49.951 119.34 34.148 47.778 500.02 3.0830 14.853 0.035588 